# MODTRAN sorted wavelengths in nanometers
284.941
284.981
285.022
285.063
285.103
285.144
285.185
285.225
285.266
285.307
285.347
285.388
285.429
285.470
285.510
285.551
285.592
285.633
285.673
285.714
285.755
285.796
285.837
285.878
285.919
285.959
286.000
286.041
286.082
286.123
286.164
286.205
286.246
286.287
286.328
286.369
286.410
286.451
286.492
286.533
286.574
286.615
286.656
286.697
286.738
286.779
286.821
286.862
286.903
286.944
286.985
287.026
287.068
287.109
287.150
287.191
287.233
287.274
287.315
287.356
287.398
287.439
287.480
287.522
287.563
287.604
287.646
287.687
287.728
287.770
287.811
287.853
287.894
287.935
287.977
288.018
288.060
288.101
288.143
288.184
288.226
288.268
288.309
288.351
288.392
288.434
288.475
288.517
288.559
288.600
288.642
288.684
288.725
288.767
288.809
288.850
288.892
288.934
288.976
289.017
289.059
289.101
289.143
289.185
289.226
289.268
289.310
289.352
289.394
289.436
289.478
289.519
289.561
289.603
289.645
289.687
289.729
289.771
289.813
289.855
289.897
289.939
289.981
290.023
290.065
290.107
290.149
290.192
290.234
290.276
290.318
290.360
290.402
290.444
290.487
290.529
290.571
290.613
290.655
290.698
290.740
290.782
290.824
290.867
290.909
290.951
290.994
291.036
291.078
291.121
291.163
291.206
291.248
291.290
291.333
291.375
291.418
291.460
291.503
291.545
291.588
291.630
291.673
291.715
291.758
291.800
291.843
291.886
291.928
291.971
292.013
292.056
292.099
292.141
292.184
292.227
292.269
292.312
292.355
292.398
292.440
292.483
292.526
292.569
292.612
292.654
292.697
292.740
292.783
292.826
292.869
292.912
292.954
292.997
293.040
293.083
293.126
293.169
293.212
293.255
293.298
293.341
293.384
293.427
293.470
293.513
293.556
293.600
293.643
293.686
293.729
293.772
293.815
293.858
293.902
293.945
293.988
294.031
294.074
294.118
294.161
294.204
294.247
294.291
294.334
294.377
294.421
294.464
294.507
294.551
294.594
294.638
294.681
294.724
294.768
294.811
294.855
294.898
294.942
294.985
295.029
295.072
295.116
295.159
295.203
295.247
295.290
295.334
295.377
295.421
295.465
295.508
295.552
295.596
295.639
295.683
295.727
295.771
295.814
295.858
295.902
295.946
295.989
296.033
296.077
296.121
296.165
296.209
296.252
296.296
296.340
296.384
296.428
296.472
296.516
296.560
296.604
296.648
296.692
296.736
296.780
296.824
296.868
296.912
296.956
297.000
297.044
297.089
297.133
297.177
297.221
297.265
297.309
297.354
297.398
297.442
297.486
297.530
297.575
297.619
297.663
297.708
297.752
297.796
297.841
297.885
297.929
297.974
298.018
298.063
298.107
298.151
298.196
298.240
298.285
298.329
298.374
298.418
298.463
298.507
298.552
298.597
298.641
298.686
298.730
298.775
298.820
298.864
298.909
298.954
298.998
299.043
299.088
299.133
299.177
299.222
299.267
299.312
299.356
299.401
299.446
299.491
299.536
299.581
299.625
299.670
299.715
299.760
299.805
299.850
299.895
299.940
299.985
300.030
300.075
300.120
300.165
300.210
300.255
300.300
300.345
300.391
300.436
300.481
300.526
300.571
300.616
300.661
300.707
300.752
300.797
300.842
300.888
300.933
300.978
301.023
301.069
301.114
301.159
301.205
301.250
301.296
301.341
301.386
301.432
301.477
301.523
301.568
301.614
301.659
301.705
301.750
301.796
301.841
301.887
301.932
301.978
302.024
302.069
302.115
302.160
302.206
302.252
302.297
302.343
302.389
302.435
302.480
302.526
302.572
302.618
302.663
302.709
302.755
302.801
302.847
302.893
302.938
302.984
303.030
303.076
303.122
303.168
303.214
303.260
303.306
303.352
303.398
303.444
303.490
303.536
303.582
303.628
303.674
303.721
303.767
303.813
303.859
303.905
303.951
303.998
304.044
304.090
304.136
304.182
304.229
304.275
304.321
304.368
304.414
304.460
304.507
304.553
304.599
304.646
304.692
304.739
304.785
304.832
304.878
304.925
304.971
305.018
305.064
305.111
305.157
305.204
305.250
305.297
305.344
305.390
305.437
305.483
305.530
305.577
305.623
305.670
305.717
305.764
305.810
305.857
305.904
305.951
305.998
306.044
306.091
306.138
306.185
306.232
306.279
306.326
306.373
306.419
306.466
306.513
306.560
306.607
306.654
306.701
306.748
306.796
306.843
306.890
306.937
306.984
307.031
307.078
307.125
307.172
307.220
307.267
307.314
307.361
307.409
307.456
307.503
307.550
307.598
307.645
307.692
307.740
307.787
307.834
307.882
307.929
307.977
308.024
308.071
308.119
308.166
308.214
308.261
308.309
308.356
308.404
308.452
308.499
308.547
308.594
308.642
308.690
308.737
308.785
308.833
308.880
308.928
308.976
309.023
309.071
309.119
309.167
309.215
309.262
309.310
309.358
309.406
309.454
309.502
309.550
309.598
309.645
309.693
309.741
309.789
309.837
309.885
309.933
309.981
310.029
310.078
310.126
310.174
310.222
310.270
310.318
310.366
310.414
310.463
310.511
310.559
310.607
310.655
310.704
310.752
310.800
310.849
310.897
310.945
310.994
311.042
311.090
311.139
311.187
311.236
311.284
311.332
311.381
311.429
311.478
311.526
311.575
311.624
311.672
311.721
311.769
311.818
311.867
311.915
311.964
312.012
312.061
312.110
312.159
312.207
312.256
312.305
312.354
312.402
312.451
312.500
312.549
312.598
312.647
312.695
312.744
312.793
312.842
312.891
312.940
312.989
313.038
313.087
313.136
313.185
313.234
313.283
313.332
313.381
313.430
313.480
313.529
313.578
313.627
313.676
313.725
313.775
313.824
313.873
313.922
313.972
314.021
314.070
314.120
314.169
314.218
314.268
314.317
314.367
314.416
314.465
314.515
314.564
314.614
314.663
314.713
314.762
314.812
314.861
314.911
314.961
315.010
315.060
315.109
315.159
315.209
315.259
315.308
315.358
315.408
315.457
315.507
315.557
315.607
315.657
315.706
315.756
315.806
315.856
315.906
315.956
316.006
316.056
316.106
316.156
316.206
316.256
316.306
316.356
316.406
316.456
316.506
316.556
316.606
316.656
316.706
316.756
316.807
316.857
316.907
316.957
317.007
317.058
317.108
317.158
317.209
317.259
317.309
317.360
317.410
317.460
317.511
317.561
317.612
317.662
317.712
317.763
317.813
317.864
317.914
317.965
318.016
318.066
318.117
318.167
318.218
318.269
318.319
318.370
318.421
318.471
318.522
318.573
318.624
318.674
318.725
318.776
318.827
318.878
318.928
318.979
319.030
319.081
319.132
319.183
319.234
319.285
319.336
319.387
319.438
319.489
319.540
319.591
319.642
319.693
319.744
319.795
319.846
319.898
319.949
320.000
320.051
320.102
320.154
320.205
320.256
320.307
320.359
320.410
320.461
320.513
320.564
320.616
320.667
320.718
320.770
320.821
320.873
320.924
320.976
321.027
321.079
321.130
321.182
321.234
321.285
321.337
321.388
321.440
321.492
321.543
321.595
321.647
321.699
321.750
321.802
321.854
321.906
321.957
322.009
322.061
322.113
322.165
322.217
322.269
322.321
322.373
322.425
322.477
322.529
322.581
322.633
322.685
322.737
322.789
322.841
322.893
322.945
322.997
323.050
323.102
323.154
323.206
323.258
323.311
323.363
323.415
323.468
323.520
323.572
323.625
323.677
323.729
323.782
323.834
323.887
323.939
323.992
324.044
324.097
324.149
324.202
324.254
324.307
324.359
324.412
324.465
324.517
324.570
324.623
324.675
324.728
324.781
324.834
324.886
324.939
324.992
325.045
325.098
325.150
325.203
325.256
325.309
325.362
325.415
325.468
325.521
325.574
325.627
325.680
325.733
325.786
325.839
325.892
325.945
325.998
326.052
326.105
326.158
326.211
326.264
326.318
326.371
326.424
326.477
326.531
326.584
326.637
326.691
326.744
326.797
326.851
326.904
326.958
327.011
327.065
327.118
327.172
327.225
327.279
327.332
327.386
327.439
327.493
327.547
327.600
327.654
327.708
327.761
327.815
327.869
327.923
327.976
328.030
328.084
328.138
328.192
328.246
328.299
328.353
328.407
328.461
328.515
328.569
328.623
328.677
328.731
328.785
328.839
328.893
328.947
329.001
329.056
329.110
329.164
329.218
329.272
329.327
329.381
329.435
329.489
329.544
329.598
329.652
329.707
329.761
329.815
329.870
329.924
329.979
330.033
330.087
330.142
330.196
330.251
330.306
330.360
330.415
330.469
330.524
330.578
330.633
330.688
330.743
330.797
330.852
330.907
330.961
331.016
331.071
331.126
331.181
331.236
331.290
331.345
331.400
331.455
331.510
331.565
331.620
331.675
331.730
331.785
331.840
331.895
331.950
332.005
332.060
332.116
332.171
332.226
332.281
332.336
332.392
332.447
332.502
332.557
332.613
332.668
332.723
332.779
332.834
332.889
332.945
333.000
333.056
333.111
333.167
333.222
333.278
333.333
333.389
333.444
333.500
333.556
333.611
333.667
333.723
333.778
333.834
333.890
333.946
334.001
334.057
334.113
334.169
334.225
334.280
334.336
334.392
334.448
334.504
334.560
334.616
334.672
334.728
334.784
334.840
334.896
334.952
335.008
335.065
335.121
335.177
335.233
335.289
335.345
335.402
335.458
335.514
335.570
335.627
335.683
335.739
335.796
335.852
335.909
335.965
336.022
336.078
336.134
336.191
336.247
336.304
336.361
336.417
336.474
336.530
336.587
336.644
336.700
336.757
336.814
336.870
336.927
336.984
337.041
337.098
337.154
337.211
337.268
337.325
337.382
337.439
337.496
337.553
337.610
337.667
337.724
337.781
337.838
337.895
337.952
338.009
338.066
338.123
338.181
338.238
338.295
338.352
338.409
338.467
338.524
338.581
338.639
338.696
338.753
338.811
338.868
338.926
338.983
339.041
339.098
339.155
339.213
339.271
339.328
339.386
339.443
339.501
339.559
339.616
339.674
339.732
339.789
339.847
339.905
339.963
340.020
340.078
340.136
340.194
340.252
340.310
340.368
340.426
340.483
340.541
340.599
340.657
340.715
340.774
340.832
340.890
340.948
341.006
341.064
341.122
341.180
341.239
341.297
341.355
341.413
341.472
341.530
341.588
341.647
341.705
341.763
341.822
341.880
341.939
341.997
342.056
342.114
342.173
342.231
342.290
342.349
342.407
342.466
342.524
342.583
342.642
342.700
342.759
342.818
342.877
342.936
342.994
343.053
343.112
343.171
343.230
343.289
343.348
343.407
343.466
343.525
343.584
343.643
343.702
343.761
343.820
343.879
343.938
343.997
344.056
344.116
344.175
344.234
344.293
344.353
344.412
344.471
344.531
344.590
344.649
344.709
344.768
344.828
344.887
344.947
345.006
345.066
345.125
345.185
345.244
345.304
345.363
345.423
345.483
345.542
345.602
345.662
345.722
345.781
345.841
345.901
345.961
346.021
346.081
346.141
346.200
346.260
346.320
346.380
346.440
346.500
346.560
346.620
346.681
346.741
346.801
346.861
346.921
346.981
347.041
347.102
347.162
347.222
347.283
347.343
347.403
347.464
347.524
347.584
347.645
347.705
347.766
347.826
347.887
347.947
348.008
348.068
348.129
348.189
348.250
348.311
348.371
348.432
348.493
348.553
348.614
348.675
348.736
348.797
348.857
348.918
348.979
349.040
349.101
349.162
349.223
349.284
349.345
349.406
349.467
349.528
349.589
349.650
349.711
349.773
349.834
349.895
349.956
350.017
350.079
350.140
350.201
350.263
350.324
350.385
350.447
350.508
350.570
350.631
350.693
350.754
350.816
350.877
350.939
351.000
351.062
351.124
351.185
351.247
351.309
351.370
351.432
351.494
351.556
351.617
351.679
351.741
351.803
351.865
351.927
351.989
352.051
352.113
352.175
352.237
352.299
352.361
352.423
352.485
352.547
352.609
352.671
352.734
352.796
352.858
352.920
352.983
353.045
353.107
353.170
353.232
353.294
353.357
353.419
353.482
353.544
353.607
353.669
353.732
353.794
353.857
353.920
353.982
354.045
354.108
354.170
354.233
354.296
354.359
354.421
354.484
354.547
354.610
354.673
354.736
354.799
354.862
354.925
354.988
355.051
355.114
355.177
355.240
355.303
355.366
355.429
355.492
355.556
355.619
355.682
355.745
355.809
355.872
355.935
355.999
356.062
356.125
356.189
356.252
356.316
356.379
356.443
356.506
356.570
356.633
356.697
356.761
356.824
356.888
356.952
357.015
357.079
357.143
357.207
357.270
357.334
357.398
357.462
357.526
357.590
357.654
357.718
357.782
357.846
357.910
357.974
358.038
358.102
358.166
358.230
358.295
358.359
358.423
358.487
358.551
358.616
358.680
358.744
358.809
358.873
358.938
359.002
359.066
359.131
359.195
359.260
359.324
359.389
359.454
359.518
359.583
359.648
359.712
359.777
359.842
359.906
359.971
360.036
360.101
360.166
360.231
360.295
360.360
360.425
360.490
360.555
360.620
360.685
360.750
360.815
360.881
360.946
361.011
361.076
361.141
361.206
361.272
361.337
361.402
361.468
361.533
361.598
361.664
361.729
361.794
361.860
361.925
361.991
362.056
362.122
362.188
362.253
362.319
362.384
362.450
362.516
362.582
362.647
362.713
362.779
362.845
362.911
362.976
363.042
363.108
363.174
363.240
363.306
363.372
363.438
363.504
363.570
363.636
363.703
363.769
363.835
363.901
363.967
364.033
364.100
364.166
364.232
364.299
364.365
364.431
364.498
364.564
364.631
364.697
364.764
364.830
364.897
364.964
365.030
365.097
365.163
365.230
365.297
365.364
365.430
365.497
365.564
365.631
365.698
365.764
365.831
365.898
365.965
366.032
366.099
366.166
366.233
366.300
366.367
366.435
366.502
366.569
366.636
366.703
366.771
366.838
366.905
366.972
367.040
367.107
367.175
367.242
367.309
367.377
367.444
367.512
367.579
367.647
367.715
367.782
367.850
367.918
367.985
368.053
368.121
368.189
368.256
368.324
368.392
368.460
368.528
368.596
368.664
368.732
368.800
368.868
368.936
369.004
369.072
369.140
369.208
369.276
369.344
369.413
369.481
369.549
369.617
369.686
369.754
369.822
369.891
369.959
370.028
370.096
370.165
370.233
370.302
370.370
370.439
370.508
370.576
370.645
370.714
370.782
370.851
370.920
370.989
371.057
371.126
371.195
371.264
371.333
371.402
371.471
371.540
371.609
371.678
371.747
371.816
371.885
371.955
372.024
372.093
372.162
372.232
372.301
372.370
372.439
372.509
372.578
372.648
372.717
372.787
372.856
372.926
372.995
373.065
373.134
373.204
373.274
373.343
373.413
373.483
373.552
373.622
373.692
373.762
373.832
373.902
373.972
374.042
374.111
374.181
374.251
374.322
374.392
374.462
374.532
374.602
374.672
374.742
374.813
374.883
374.953
375.023
375.094
375.164
375.235
375.305
375.375
375.446
375.516
375.587
375.657
375.728
375.799
375.869
375.940
376.011
376.081
376.152
376.223
376.294
376.364
376.435
376.506
376.577
376.648
376.719
376.790
376.861
376.932
377.003
377.074
377.145
377.216
377.287
377.358
377.430
377.501
377.572
377.643
377.715
377.786
377.858
377.929
378.000
378.072
378.143
378.215
378.286
378.358
378.430
378.501
378.573
378.644
378.716
378.788
378.860
378.931
379.003
379.075
379.147
379.219
379.291
379.363
379.435
379.507
379.579
379.651
379.723
379.795
379.867
379.939
380.011
380.084
380.156
380.228
380.300
380.373
380.445
380.518
380.590
380.662
380.735
380.807
380.880
380.952
381.025
381.098
381.170
381.243
381.316
381.388
381.461
381.534
381.607
381.679
381.752
381.825
381.898
381.971
382.044
382.117
382.190
382.263
382.336
382.409
382.482
382.555
382.629
382.702
382.775
382.848
382.922
382.995
383.068
383.142
383.215
383.289
383.362
383.436
383.509
383.583
383.656
383.730
383.803
383.877
383.951
384.025
384.098
384.172
384.246
384.320
384.394
384.467
384.541
384.615
384.689
384.763
384.837
384.911
384.986
385.060
385.134
385.208
385.282
385.356
385.431
385.505
385.579
385.654
385.728
385.802
385.877
385.951
386.026
386.100
386.175
386.250
386.324
386.399
386.473
386.548
386.623
386.698
386.772
386.847
386.922
386.997
387.072
387.147
387.222
387.297
387.372
387.447
387.522
387.597
387.672
387.747
387.822
387.898
387.973
388.048
388.123
388.199
388.274
388.350
388.425
388.500
388.576
388.651
388.727
388.802
388.878
388.954
389.029
389.105
389.181
389.257
389.332
389.408
389.484
389.560
389.636
389.712
389.788
389.864
389.940
390.016
390.092
390.168
390.244
390.320
390.396
390.472
390.549
390.625
390.701
390.778
390.854
390.930
391.007
391.083
391.160
391.236
391.313
391.389
391.466
391.543
391.619
391.696
391.773
391.850
391.926
392.003
392.080
392.157
392.234
392.311
392.388
392.465
392.542
392.619
392.696
392.773
392.850
392.927
393.005
393.082
393.159
393.236
393.314
393.391
393.468
393.546
393.623
393.701
393.778
393.856
393.933
394.011
394.089
394.166
394.244
394.322
394.400
394.477
394.555
394.633
394.711
394.789
394.867
394.945
395.023
395.101
395.179
395.257
395.335
395.413
395.491
395.570
395.648
395.726
395.804
395.883
395.961
396.040
396.118
396.197
396.275
396.354
396.432
396.511
396.589
396.668
396.747
396.825
396.904
396.983
397.062
397.141
397.219
397.298
397.377
397.456
397.535
397.614
397.693
397.772
397.852
397.931
398.010
398.089
398.168
398.248
398.327
398.406
398.486
398.565
398.645
398.724
398.804
398.883
398.963
399.042
399.122
399.202
399.281
399.361
399.441
399.521
399.600
399.680
399.760
399.840
399.920
400.000
400.080
400.160
400.240
400.320
400.400
400.481
400.561
400.641
400.721
400.802
400.882
400.962
401.043
401.123
401.204
401.284
401.365
401.445
401.526
401.606
401.687
401.768
401.848
401.929
402.010
402.091
402.172
402.253
402.334
402.414
402.495
402.576
402.658
402.739
402.820
402.901
402.982
403.063
403.145
403.226
403.307
403.388
403.470
403.551
403.633
403.714
403.796
403.877
403.959
404.040
404.122
404.204
404.285
404.367
404.449
404.531
404.613
404.694
404.776
404.858
404.940
405.022
405.104
405.186
405.268
405.351
405.433
405.515
405.597
405.680
405.762
405.844
405.927
406.009
406.091
406.174
406.256
406.339
406.421
406.504
406.587
406.669
406.752
406.835
406.918
407.000
407.083
407.166
407.249
407.332
407.415
407.498
407.581
407.664
407.747
407.830
407.914
407.997
408.080
408.163
408.247
408.330
408.413
408.497
408.580
408.664
408.747
408.831
408.914
408.998
409.082
409.165
409.249
409.333
409.417
409.500
409.584
409.668
409.752
409.836
409.920
410.004
410.088
410.172
410.256
410.341
410.425
410.509
410.593
410.678
410.762
410.846
410.931
411.015
411.100
411.184
411.269
411.353
411.438
411.523
411.607
411.692
411.777
411.862
411.946
412.031
412.116
412.201
412.286
412.371
412.456
412.541
412.626
412.711
412.797
412.882
412.967
413.052
413.138
413.223
413.309
413.394
413.479
413.565
413.650
413.736
413.822
413.907
413.993
414.079
414.164
414.250
414.336
414.422
414.508
414.594
414.680
414.766
414.852
414.938
415.024
415.110
415.196
415.282
415.369
415.455
415.541
415.628
415.714
415.800
415.887
415.973
416.060
416.146
416.233
416.320
416.406
416.493
416.580
416.667
416.754
416.840
416.927
417.014
417.101
417.188
417.275
417.362
417.449
417.537
417.624
417.711
417.798
417.885
417.973
418.060
418.148
418.235
418.323
418.410
418.498
418.585
418.673
418.760
418.848
418.936
419.024
419.111
419.199
419.287
419.375
419.463
419.551
419.639
419.727
419.815
419.903
419.992
420.080
420.168
420.256
420.345
420.433
420.521
420.610
420.698
420.787
420.875
420.964
421.053
421.141
421.230
421.319
421.408
421.496
421.585
421.674
421.763
421.852
421.941
422.030
422.119
422.208
422.297
422.387
422.476
422.565
422.654
422.744
422.833
422.922
423.012
423.101
423.191
423.280
423.370
423.460
423.549
423.639
423.729
423.819
423.908
423.998
424.088
424.178
424.268
424.358
424.448
424.538
424.628
424.719
424.809
424.899
424.989
425.080
425.170
425.260
425.351
425.441
425.532
425.622
425.713
425.804
425.894
425.985
426.076
426.167
426.257
426.348
426.439
426.530
426.621
426.712
426.803
426.894
426.985
427.077
427.168
427.259
427.350
427.442
427.533
427.625
427.716
427.807
427.899
427.991
428.082
428.174
428.266
428.357
428.449
428.541
428.633
428.725
428.816
428.908
429.000
429.092
429.185
429.277
429.369
429.461
429.553
429.646
429.738
429.830
429.923
430.015
430.108
430.200
430.293
430.385
430.478
430.571
430.663
430.756
430.849
430.942
431.034
431.127
431.220
431.313
431.406
431.499
431.593
431.686
431.779
431.872
431.965
432.059
432.152
432.246
432.339
432.432
432.526
432.620
432.713
432.807
432.900
432.994
433.088
433.182
433.276
433.369
433.463
433.557
433.651
433.745
433.839
433.934
434.028
434.122
434.216
434.311
434.405
434.499
434.594
434.688
434.783
434.877
434.972
435.066
435.161
435.256
435.350
435.445
435.540
435.635
435.730
435.825
435.920
436.015
436.110
436.205
436.300
436.395
436.491
436.586
436.681
436.777
436.872
436.967
437.063
437.158
437.254
437.350
437.445
437.541
437.637
437.733
437.828
437.924
438.020
438.116
438.212
438.308
438.404
438.500
438.596
438.693
438.789
438.885
438.982
439.078
439.174
439.271
439.367
439.464
439.560
439.657
439.754
439.850
439.947
440.044
440.141
440.238
440.335
440.432
440.529
440.626
440.723
440.820
440.917
441.014
441.112
441.209
441.306
441.404
441.501
441.599
441.696
441.794
441.891
441.989
442.087
442.184
442.282
442.380
442.478
442.576
442.674
442.772
442.870
442.968
443.066
443.164
443.262
443.361
443.459
443.557
443.656
443.754
443.853
443.951
444.050
444.148
444.247
444.346
444.444
444.543
444.642
444.741
444.840
444.939
445.038
445.137
445.236
445.335
445.434
445.534
445.633
445.732
445.831
445.931
446.030
446.130
446.229
446.329
446.429
446.528
446.628
446.728
446.828
446.927
447.027
447.127
447.227
447.327
447.427
447.527
447.628
447.728
447.828
447.928
448.029
448.129
448.229
448.330
448.430
448.531
448.632
448.732
448.833
448.934
449.035
449.135
449.236
449.337
449.438
449.539
449.640
449.741
449.843
449.944
450.045
450.146
450.248
450.349
450.450
450.552
450.653
450.755
450.857
450.958
451.060
451.162
451.264
451.365
451.467
451.569
451.671
451.773
451.875
451.977
452.080
452.182
452.284
452.386
452.489
452.591
452.694
452.796
452.899
453.001
453.104
453.206
453.309
453.412
453.515
453.618
453.721
453.823
453.926
454.030
454.133
454.236
454.339
454.442
454.545
454.649
454.752
454.856
454.959
455.063
455.166
455.270
455.373
455.477
455.581
455.685
455.789
455.892
455.996
456.100
456.204
456.308
456.413
456.517
456.621
456.725
456.830
456.934
457.038
457.143
457.247
457.352
457.457
457.561
457.666
457.771
457.875
457.980
458.085
458.190
458.295
458.400
458.505
458.610
458.716
458.821
458.926
459.031
459.137
459.242
459.348
459.453
459.559
459.664
459.770
459.876
459.982
460.087
460.193
460.299
460.405
460.511
460.617
460.723
460.829
460.936
461.042
461.148
461.255
461.361
461.467
461.574
461.681
461.787
461.894
462.000
462.107
462.214
462.321
462.428
462.535
462.642
462.749
462.856
462.963
463.070
463.177
463.285
463.392
463.499
463.607
463.714
463.822
463.929
464.037
464.145
464.253
464.360
464.468
464.576
464.684
464.792
464.900
465.008
465.116
465.224
465.333
465.441
465.549
465.658
465.766
465.875
465.983
466.092
466.200
466.309
466.418
466.527
466.636
466.744
466.853
466.962
467.071
467.181
467.290
467.399
467.508
467.617
467.727
467.836
467.946
468.055
468.165
468.274
468.384
468.494
468.604
468.713
468.823
468.933
469.043
469.153
469.263
469.373
469.484
469.594
469.704
469.814
469.925
470.035
470.146
470.256
470.367
470.478
470.588
470.699
470.810
470.921
471.032
471.143
471.254
471.365
471.476
471.587
471.698
471.809
471.921
472.032
472.144
472.255
472.367
472.478
472.590
472.701
472.813
472.925
473.037
473.149
473.261
473.373
473.485
473.597
473.709
473.821
473.934
474.046
474.158
474.271
474.383
474.496
474.608
474.721
474.834
474.947
475.059
475.172
475.285
475.398
475.511
475.624
475.737
475.851
475.964
476.077
476.190
476.304
476.417
476.531
476.644
476.758
476.872
476.985
477.099
477.213
477.327
477.441
477.555
477.669
477.783
477.897
478.011
478.126
478.240
478.354
478.469
478.583
478.698
478.813
478.927
479.042
479.157
479.272
479.386
479.501
479.616
479.731
479.846
479.962
480.077
480.192
480.307
480.423
480.538
480.654
480.769
480.885
481.000
481.116
481.232
481.348
481.464
481.580
481.696
481.812
481.928
482.044
482.160
482.276
482.393
482.509
482.625
482.742
482.859
482.975
483.092
483.208
483.325
483.442
483.559
483.676
483.793
483.910
484.027
484.144
484.262
484.379
484.496
484.613
484.731
484.849
484.966
485.084
485.201
485.319
485.437
485.555
485.673
485.791
485.909
486.027
486.145
486.263
486.381
486.500
486.618
486.736
486.855
486.973
487.092
487.211
487.329
487.448
487.567
487.686
487.805
487.924
488.043
488.162
488.281
488.400
488.520
488.639
488.759
488.878
488.998
489.117
489.237
489.356
489.476
489.596
489.716
489.836
489.956
490.076
490.196
490.316
490.436
490.557
490.677
490.798
490.918
491.039
491.159
491.280
491.400
491.521
491.642
491.763
491.884
492.005
492.126
492.247
492.368
492.490
492.611
492.732
492.854
492.975
493.097
493.218
493.340
493.462
493.583
493.705
493.827
493.949
494.071
494.193
494.315
494.438
494.560
494.682
494.805
494.927
495.049
495.172
495.295
495.417
495.540
495.663
495.786
495.909
496.032
496.155
496.278
496.401
496.524
496.648
496.771
496.894
497.018
497.141
497.265
497.389
497.512
497.636
497.760
497.884
498.008
498.132
498.256
498.380
498.504
498.629
498.753
498.878
499.002
499.127
499.251
499.376
499.501
499.625
499.750
499.875
500.000
500.125
500.250
500.375
500.500
500.626
500.751
500.877
501.002
501.128
501.253
501.379
501.505
501.630
501.756
501.882
502.008
502.134
502.260
502.386
502.513
502.639
502.765
502.892
503.018
503.145
503.271
503.398
503.525
503.651
503.778
503.905
504.032
504.159
504.286
504.414
504.541
504.668
504.796
504.923
505.050
505.178
505.306
505.433
505.561
505.689
505.817
505.945
506.073
506.201
506.329
506.457
506.586
506.714
506.842
506.971
507.099
507.228
507.357
507.485
507.614
507.743
507.872
508.001
508.130
508.259
508.388
508.518
508.647
508.776
508.906
509.035
509.165
509.295
509.424
509.554
509.684
509.814
509.944
510.074
510.204
510.334
510.465
510.595
510.725
510.856
510.986
511.117
511.247
511.378
511.509
511.640
511.771
511.902
512.033
512.164
512.295
512.426
512.558
512.689
512.821
512.952
513.084
513.215
513.347
513.479
513.611
513.743
513.875
514.007
514.139
514.271
514.403
514.536
514.668
514.800
514.933
515.066
515.198
515.331
515.464
515.597
515.730
515.863
515.996
516.129
516.262
516.396
516.529
516.662
516.796
516.929
517.063
517.197
517.331
517.464
517.598
517.732
517.866
518.001
518.135
518.269
518.403
518.538
518.672
518.807
518.941
519.076
519.211
519.346
519.481
519.615
519.751
519.886
520.021
520.156
520.291
520.427
520.562
520.698
520.833
520.969
521.105
521.241
521.376
521.512
521.648
521.784
521.921
522.057
522.193
522.330
522.466
522.603
522.739
522.876
523.013
523.149
523.286
523.423
523.560
523.697
523.834
523.972
524.109
524.246
524.384
524.521
524.659
524.797
524.934
525.072
525.210
525.348
525.486
525.624
525.762
525.901
526.039
526.177
526.316
526.454
526.593
526.732
526.870
527.009
527.148
527.287
527.426
527.565
527.704
527.844
527.983
528.123
528.262
528.402
528.541
528.681
528.821
528.961
529.101
529.241
529.381
529.521
529.661
529.801
529.942
530.082
530.223
530.363
530.504
530.645
530.786
530.926
531.067
531.208
531.350
531.491
531.632
531.773
531.915
532.056
532.198
532.340
532.481
532.623
532.765
532.907
533.049
533.191
533.333
533.476
533.618
533.760
533.903
534.045
534.188
534.331
534.474
534.616
534.759
534.902
535.046
535.189
535.332
535.475
535.619
535.762
535.906
536.049
536.193
536.337
536.481
536.625
536.769
536.913
537.057
537.201
537.346
537.490
537.634
537.779
537.924
538.068
538.213
538.358
538.503
538.648
538.793
538.938
539.084
539.229
539.374
539.520
539.665
539.811
539.957
540.103
540.249
540.394
540.541
540.687
540.833
540.979
541.126
541.272
541.419
541.565
541.712
541.859
542.005
542.152
542.299
542.446
542.594
542.741
542.888
543.036
543.183
543.331
543.478
543.626
543.774
543.922
544.070
544.218
544.366
544.514
544.662
544.811
544.959
545.108
545.256
545.405
545.554
545.703
545.852
546.001
546.150
546.299
546.448
546.597
546.747
546.896
547.046
547.196
547.345
547.495
547.645
547.795
547.945
548.095
548.246
548.396
548.546
548.697
548.847
548.998
549.149
549.300
549.451
549.602
549.753
549.904
550.055
550.206
550.358
550.509
550.661
550.812
550.964
551.116
551.268
551.420
551.572
551.724
551.876
552.029
552.181
552.334
552.486
552.639
552.792
552.944
553.097
553.250
553.403
553.557
553.710
553.863
554.017
554.170
554.324
554.477
554.631
554.785
554.939
555.093
555.247
555.401
555.556
555.710
555.864
556.019
556.174
556.328
556.483
556.638
556.793
556.948
557.103
557.258
557.414
557.569
557.724
557.880
558.036
558.191
558.347
558.503
558.659
558.815
558.971
559.128
559.284
559.441
559.597
559.754
559.910
560.067
560.224
560.381
560.538
560.695
560.852
561.010
561.167
561.325
561.482
561.640
561.798
561.956
562.114
562.272
562.430
562.588
562.746
562.905
563.063
563.222
563.380
563.539
563.698
563.857
564.016
564.175
564.334
564.493
564.653
564.812
564.972
565.131
565.291
565.451
565.611
565.771
565.931
566.091
566.251
566.412
566.572
566.733
566.893
567.054
567.215
567.376
567.537
567.698
567.859
568.020
568.182
568.343
568.505
568.666
568.828
568.990
569.152
569.314
569.476
569.638
569.801
569.963
570.125
570.288
570.451
570.613
570.776
570.939
571.102
571.265
571.429
571.592
571.755
571.919
572.082
572.246
572.410
572.574
572.738
572.902
573.066
573.230
573.394
573.559
573.724
573.888
574.053
574.218
574.383
574.548
574.713
574.878
575.043
575.208
575.374
575.540
575.705
575.871
576.037
576.203
576.369
576.535
576.701
576.868
577.034
577.201
577.367
577.534
577.701
577.868
578.035
578.202
578.369
578.536
578.704
578.871
579.039
579.206
579.374
579.542
579.710
579.878
580.046
580.215
580.383
580.552
580.720
580.889
581.058
581.226
581.395
581.564
581.734
581.903
582.072
582.242
582.411
582.581
582.751
582.920
583.090
583.260
583.431
583.601
583.771
583.942
584.112
584.283
584.454
584.624
584.795
584.966
585.138
585.309
585.480
585.651
585.823
585.995
586.167
586.338
586.510
586.682
586.854
587.027
587.199
587.372
587.544
587.717
587.889
588.062
588.235
588.408
588.581
588.755
588.928
589.102
589.275
589.449
589.623
589.797
589.971
590.145
590.319
590.493
590.667
590.842
591.017
591.191
591.366
591.541
591.716
591.891
592.066
592.242
592.417
592.593
592.768
592.944
593.120
593.296
593.472
593.648
593.824
594.001
594.177
594.354
594.530
594.707
594.884
595.061
595.238
595.415
595.593
595.770
595.948
596.125
596.303
596.481
596.659
596.837
597.015
597.193
597.372
597.550
597.729
597.907
598.086
598.265
598.444
598.623
598.802
598.982
599.161
599.341
599.520
599.700
599.880
600.060
600.240
600.420
600.601
600.781
600.962
601.142
601.323
601.504
601.685
601.866
602.047
602.228
602.410
602.591
602.773
602.954
603.136
603.318
603.500
603.682
603.865
604.047
604.230
604.412
604.595
604.778
604.961
605.144
605.327
605.510
605.694
605.877
606.061
606.244
606.428
606.612
606.796
606.980
607.165
607.349
607.533
607.718
607.903
608.088
608.273
608.458
608.643
608.828
609.013
609.199
609.385
609.570
609.756
609.942
610.128
610.314
610.501
610.687
610.874
611.060
611.247
611.434
611.621
611.808
611.995
612.182
612.370
612.557
612.745
612.933
613.121
613.309
613.497
613.685
613.874
614.062
614.251
614.439
614.628
614.817
615.006
615.195
615.385
615.574
615.764
615.953
616.143
616.333
616.523
616.713
616.903
617.094
617.284
617.475
617.665
617.856
618.047
618.238
618.429
618.620
618.812
619.003
619.195
619.387
619.579
619.771
619.963
620.155
620.347
620.540
620.732
620.925
621.118
621.311
621.504
621.697
621.891
622.084
622.278
622.471
622.665
622.859
623.053
623.247
623.441
623.636
623.830
624.025
624.220
624.415
624.610
624.805
625.000
625.195
625.391
625.586
625.782
625.978
626.174
626.370
626.566
626.763
626.959
627.156
627.353
627.549
627.746
627.943
628.141
628.338
628.536
628.733
628.931
629.129
629.327
629.525
629.723
629.921
630.120
630.318
630.517
630.716
630.915
631.114
631.313
631.512
631.712
631.911
632.111
632.311
632.511
632.711
632.911
633.112
633.312
633.513
633.714
633.914
634.115
634.317
634.518
634.719
634.921
635.122
635.324
635.526
635.728
635.930
636.132
636.335
636.537
636.740
636.943
637.146
637.349
637.552
637.755
637.958
638.162
638.366
638.570
638.774
638.978
639.182
639.386
639.591
639.795
640.000
640.205
640.410
640.615
640.820
641.026
641.231
641.437
641.643
641.849
642.055
642.261
642.467
642.673
642.880
643.087
643.294
643.501
643.708
643.915
644.122
644.330
644.538
644.745
644.953
645.161
645.369
645.578
645.786
645.995
646.204
646.412
646.621
646.831
647.040
647.249
647.459
647.668
647.878
648.088
648.298
648.508
648.719
648.929
649.140
649.351
649.562
649.773
649.984
650.195
650.406
650.618
650.830
651.042
651.254
651.466
651.678
651.890
652.103
652.316
652.529
652.742
652.955
653.168
653.381
653.595
653.808
654.022
654.236
654.450
654.664
654.879
655.093
655.308
655.523
655.738
655.953
656.168
656.383
656.599
656.814
657.030
657.246
657.462
657.678
657.895
658.111
658.328
658.545
658.761
658.979
659.196
659.413
659.631
659.848
660.066
660.284
660.502
660.720
660.939
661.157
661.376
661.594
661.813
662.032
662.252
662.471
662.690
662.910
663.130
663.350
663.570
663.790
664.011
664.231
664.452
664.673
664.894
665.115
665.336
665.557
665.779
666.001
666.223
666.445
666.667
666.889
667.111
667.334
667.557
667.780
668.003
668.226
668.449
668.673
668.896
669.120
669.344
669.568
669.792
670.017
670.241
670.466
670.691
670.916
671.141
671.366
671.592
671.817
672.043
672.269
672.495
672.721
672.948
673.174
673.401
673.628
673.854
674.082
674.309
674.536
674.764
674.992
675.219
675.447
675.676
675.904
676.133
676.361
676.590
676.819
677.048
677.277
677.507
677.736
677.966
678.196
678.426
678.656
678.887
679.117
679.348
679.579
679.810
680.041
680.272
680.504
680.735
680.967
681.199
681.431
681.663
681.896
682.128
682.361
682.594
682.827
683.060
683.293
683.527
683.761
683.995
684.229
684.463
684.697
684.932
685.166
685.401
685.636
685.871
686.106
686.342
686.577
686.813
687.049
687.285
687.521
687.758
687.995
688.231
688.468
688.705
688.943
689.180
689.417
689.655
689.893
690.131
690.369
690.608
690.846
691.085
691.324
691.563
691.802
692.042
692.281
692.521
692.761
693.001
693.241
693.481
693.722
693.963
694.203
694.444
694.686
694.927
695.169
695.410
695.652
695.894
696.136
696.379
696.621
696.864
697.107
697.350
697.593
697.837
698.080
698.324
698.568
698.812
699.056
699.301
699.545
699.790
700.035
700.280
700.525
700.771
701.016
701.262
701.508
701.754
702.001
702.247
702.494
702.741
702.988
703.235
703.482
703.730
703.977
704.225
704.473
704.722
704.970
705.219
705.467
705.716
705.965
706.215
706.464
706.714
706.964
707.214
707.464
707.714
707.965
708.215
708.466
708.717
708.968
709.220
709.471
709.723
709.975
710.227
710.480
710.732
710.985
711.238
711.491
711.744
711.997
712.251
712.504
712.758
713.012
713.267
713.521
713.776
714.031
714.286
714.541
714.796
715.052
715.308
715.564
715.820
716.076
716.332
716.589
716.846
717.103
717.360
717.617
717.875
718.133
718.391
718.649
718.907
719.166
719.424
719.683
719.942
720.202
720.461
720.721
720.981
721.241
721.501
721.761
722.022
722.282
722.543
722.805
723.066
723.327
723.589
723.851
724.113
724.375
724.638
724.900
725.163
725.426
725.689
725.953
726.216
726.480
726.744
727.008
727.273
727.537
727.802
728.067
728.332
728.597
728.863
729.129
729.395
729.661
729.927
730.193
730.460
730.727
730.994
731.261
731.529
731.797
732.064
732.332
732.601
732.869
733.138
733.407
733.676
733.945
734.214
734.484
734.754
735.024
735.294
735.565
735.835
736.106
736.377
736.648
736.920
737.191
737.463
737.735
738.007
738.280
738.552
738.825
739.098
739.372
739.645
739.919
740.192
740.466
740.741
741.015
741.290
741.565
741.840
742.115
742.391
742.666
742.942
743.218
743.494
743.771
744.048
744.325
744.602
744.879
745.156
745.434
745.712
745.990
746.269
746.547
746.826
747.105
747.384
747.664
747.943
748.223
748.503
748.783
749.064
749.344
749.625
749.906
750.188
750.469
750.751
751.033
751.315
751.597
751.880
752.162
752.445
752.729
753.012
753.296
753.579
753.864
754.148
754.432
754.717
755.002
755.287
755.572
755.858
756.144
756.430
756.716
757.002
757.289
757.576
757.863
758.150
758.438
758.725
759.013
759.301
759.590
759.878
760.167
760.456
760.746
761.035
761.325
761.615
761.905
762.195
762.486
762.776
763.068
763.359
763.650
763.942
764.234
764.526
764.818
765.111
765.404
765.697
765.990
766.284
766.577
766.871
767.165
767.460
767.754
768.049
768.344
768.640
768.935
769.231
769.527
769.823
770.119
770.416
770.713
771.010
771.307
771.605
771.903
772.201
772.499
772.798
773.096
773.395
773.694
773.994
774.293
774.593
774.893
775.194
775.494
775.795
776.096
776.398
776.699
777.001
777.303
777.605
777.907
778.210
778.513
778.816
779.120
779.423
779.727
780.031
780.336
780.640
780.945
781.250
781.555
781.861
782.167
782.473
782.779
783.085
783.392
783.699
784.006
784.314
784.621
784.929
785.238
785.546
785.855
786.164
786.473
786.782
787.092
787.402
787.712
788.022
788.333
788.644
788.955
789.266
789.578
789.889
790.201
790.514
790.826
791.139
791.452
791.766
792.079
792.393
792.707
793.021
793.336
793.651
793.966
794.281
794.597
794.913
795.229
795.545
795.862
796.178
796.495
796.813
797.130
797.448
797.766
798.085
798.403
798.722
799.041
799.361
799.680
800.000
800.320
800.641
800.961
801.282
801.603
801.925
802.246
802.568
802.890
803.213
803.536
803.859
804.182
804.505
804.829
805.153
805.477
805.802
806.127
806.452
806.777
807.102
807.428
807.754
808.081
808.407
808.734
809.061
809.389
809.717
810.045
810.373
810.701
811.030
811.359
811.688
812.018
812.348
812.678
813.008
813.339
813.670
814.001
814.332
814.664
814.996
815.328
815.661
815.993
816.327
816.660
816.993
817.327
817.661
817.996
818.331
818.666
819.001
819.336
819.672
820.008
820.345
820.681
821.018
821.355
821.693
822.030
822.368
822.707
823.045
823.384
823.723
824.063
824.402
824.742
825.082
825.423
825.764
826.105
826.446
826.788
827.130
827.472
827.815
828.157
828.500
828.844
829.187
829.531
829.876
830.220
830.565
830.910
831.255
831.601
831.947
832.293
832.639
832.986
833.333
833.681
834.028
834.376
834.725
835.073
835.422
835.771
836.120
836.470
836.820
837.170
837.521
837.872
838.223
838.574
838.926
839.278
839.631
839.983
840.336
840.689
841.043
841.397
841.751
842.105
842.460
842.815
843.170
843.526
843.882
844.238
844.595
844.951
845.309
845.666
846.024
846.382
846.740
847.099
847.458
847.817
848.176
848.536
848.896
849.257
849.618
849.979
850.340
850.702
851.064
851.426
851.789
852.152
852.515
852.878
853.242
853.606
853.971
854.336
854.701
855.066
855.432
855.798
856.164
856.531
856.898
857.265
857.633
858.001
858.369
858.738
859.107
859.476
859.845
860.215
860.585
860.956
861.326
861.698
862.069
862.441
862.813
863.185
863.558
863.931
864.304
864.678
865.052
865.426
865.801
866.176
866.551
866.927
867.303
867.679
868.056
868.432
868.810
869.187
869.565
869.943
870.322
870.701
871.080
871.460
871.840
872.220
872.600
872.981
873.362
873.744
874.126
874.508
874.891
875.273
875.657
876.040
876.424
876.808
877.193
877.578
877.963
878.349
878.735
879.121
879.508
879.894
880.282
880.669
881.057
881.446
881.834
882.223
882.613
883.002
883.392
883.783
884.173
884.564
884.956
885.347
885.740
886.132
886.525
886.918
887.311
887.705
888.099
888.494
888.889
889.284
889.680
890.076
890.472
890.869
891.266
891.663
892.061
892.459
892.857
893.256
893.655
894.055
894.454
894.855
895.255
895.656
896.057
896.459
896.861
897.263
897.666
898.069
898.473
898.876
899.281
899.685
900.090
900.495
900.901
901.307
901.713
902.120
902.527
902.935
903.342
903.751
904.159
904.568
904.977
905.387
905.797
906.208
906.618
907.029
907.441
907.853
908.265
908.678
909.091
909.504
909.918
910.332
910.747
911.162
911.577
911.993
912.409
912.825
913.242
913.659
914.077
914.495
914.913
915.332
915.751
916.170
916.590
917.011
917.431
917.852
918.274
918.695
919.118
919.540
919.963
920.387
920.810
921.234
921.659
922.084
922.509
922.935
923.361
923.788
924.214
924.642
925.069
925.497
925.926
926.355
926.784
927.214
927.644
928.074
928.505
928.936
929.368
929.800
930.233
930.665
931.099
931.532
931.966
932.401
932.836
933.271
933.707
934.143
934.579
935.016
935.454
935.891
936.330
936.768
937.207
937.646
938.086
938.526
938.967
939.408
939.850
940.291
940.734
941.176
941.620
942.063
942.507
942.951
943.396
943.841
944.287
944.733
945.180
945.627
946.074
946.522
946.970
947.418
947.867
948.317
948.767
949.217
949.668
950.119
950.570
951.022
951.475
951.928
952.381
952.835
953.289
953.743
954.198
954.654
955.110
955.566
956.023
956.480
956.938
957.396
957.854
958.313
958.773
959.233
959.693
960.154
960.615
961.076
961.538
962.001
962.464
962.927
963.391
963.855
964.320
964.785
965.251
965.717
966.184
966.651
967.118
967.586
968.054
968.523
968.992
969.462
969.932
970.403
970.874
971.345
971.817
972.290
972.763
973.236
973.710
974.184
974.659
975.134
975.610
976.086
976.562
977.040
977.517
977.995
978.474
978.953
979.432
979.912
980.392
980.873
981.354
981.836
982.318
982.801
983.284
983.768
984.252
984.737
985.222
985.707
986.193
986.680
987.167
987.654
988.142
988.631
989.120
989.609
990.099
990.589
991.080
991.572
992.063
992.556
993.049
993.542
994.036
994.530
995.025
995.520
996.016
996.512
997.009
997.506
998.004
998.502
999.001
999.500
1000.000
1000.500
1001.001
1001.502
1002.004
1002.506
1003.009
1003.512
1004.016
1004.520
1005.025
1005.530
1006.036
1006.543
1007.049
1007.557
1008.065
1008.573
1009.082
1009.591
1010.101
1010.611
1011.122
1011.634
1012.146
1012.658
1013.171
1013.685
1014.199
1014.713
1015.228
1015.744
1016.260
1016.777
1017.294
1017.812
1018.330
1018.849
1019.368
1019.888
1020.408
1020.929
1021.450
1021.972
1022.495
1023.018
1023.541
1024.066
1024.590
1025.115
1025.641
1026.167
1026.694
1027.221
1027.749
1028.278
1028.807
1029.336
1029.866
1030.397
1030.928
1031.460
1031.992
1032.524
1033.058
1033.592
1034.126
1034.661
1035.197
1035.733
1036.269
1036.807
1037.344
1037.883
1038.422
1038.961
1039.501
1040.042
1040.583
1041.125
1041.667
1042.209
1042.753
1043.297
1043.841
1044.386
1044.932
1045.478
1046.025
1046.572
1047.120
1047.669
1048.218
1048.768
1049.318
1049.869
1050.420
1050.972
1051.525
1052.078
1052.632
1053.186
1053.741
1054.296
1054.852
1055.409
1055.966
1056.524
1057.082
1057.641
1058.201
1058.761
1059.322
1059.883
1060.445
1061.008
1061.571
1062.135
1062.699
1063.264
1063.830
1064.396
1064.963
1065.530
1066.098
1066.667
1067.236
1067.806
1068.376
1068.947
1069.519
1070.091
1070.664
1071.237
1071.811
1072.386
1072.961
1073.537
1074.114
1074.691
1075.269
1075.847
1076.426
1077.006
1077.586
1078.167
1078.749
1079.331
1079.914
1080.497
1081.081
1081.666
1082.251
1082.837
1083.424
1084.011
1084.599
1085.187
1085.776
1086.366
1086.957
1087.547
1088.139
1088.732
1089.325
1089.918
1090.513
1091.108
1091.703
1092.299
1092.896
1093.494
1094.092
1094.691
1095.290
1095.890
1096.491
1097.093
1097.695
1098.298
1098.901
1099.505
1100.110
1100.716
1101.322
1101.928
1102.536
1103.144
1103.753
1104.362
1104.972
1105.583
1106.195
